z[m] p[mb] tp[K] q[g/kg] u[m/s] v[m/s]
0,   66,   1010.09    day,levels,pres0
75.867 -999.000  297.709    18.841   -2.790   -0.110
110.036 -999.000  297.816    18.816   -3.498   -0.141
144.299 -999.000  297.907    18.796   -3.969   -0.168
178.659 -999.000  298.011    18.770   -4.438   -0.204
217.444 -999.000  298.184    18.692   -5.178   -0.276
256.352 -999.000  298.687    18.429   -7.487   -0.624
295.420 -999.000  298.935    18.212   -8.019   -0.713
334.613 -999.000  299.188    17.918   -8.482   -0.788
369.576 -999.000  299.457    17.621   -8.866   -0.867
409.048 -999.000  299.766    17.353   -9.239   -0.995
448.645 -999.000  300.058    17.191   -9.486   -1.190
488.396 -999.000  300.286    17.147   -9.511   -1.400
532.722 -999.000  300.463    17.178   -9.320   -1.557
577.222 -999.000  300.591    17.250   -8.998   -1.632
621.900 -999.000  300.703    17.325   -8.593   -1.671
666.754 -999.000  300.825    17.386   -8.135   -1.704
711.786 -999.000  300.969    17.414   -7.648   -1.759
756.996 -999.000  301.138    17.364   -7.162   -1.857
806.944 -999.000  301.358    17.216   -6.684   -2.024
857.092 -999.000  301.584    17.005   -6.324   -2.228
902.881 -999.000  301.794    16.777   -6.132   -2.431
948.853 -999.000  301.982    16.526   -6.053   -2.624
999.646 -999.000  302.185    16.234   -6.031   -2.847
1055.303 -999.000  302.410    15.898   -6.030   -3.124
1106.551 -999.000  302.624    15.578   -6.001   -3.415
1158.050 -999.000  302.846    15.243   -5.941   -3.743
1214.489 -999.000  303.064    14.896   -5.847   -4.123
1271.214 -999.000  303.269    14.569   -5.796   -4.502
1328.230 -999.000  303.457    14.249   -5.835   -4.867
1390.346 -999.000  303.663    13.915   -6.011   -5.229
1452.790 -999.000  303.868    13.600   -6.307   -5.543
1510.766 -999.000  304.079    13.329   -6.641   -5.816
1569.056 -999.000  304.302    13.093   -6.939   -6.094
1632.579 -999.000  304.555    12.869   -7.110   -6.398
1696.455 -999.000  304.831    12.630   -7.078   -6.658
1765.728 -999.000  305.132    12.338   -6.889   -6.831
1830.388 -999.000  305.436    12.033   -6.656   -6.938
1895.542 -999.000  305.692    11.782   -6.403   -6.984
1971.156 -999.000  305.977    11.507   -6.014   -7.050
2047.361 -999.000  306.220    11.248   -5.533   -7.177
2134.412 -999.000  306.582    10.883   -4.859   -7.380
2227.378 -999.000  307.242    10.360   -3.958   -7.498
2514.037 -999.000  308.615    9.610   -2.862   -7.041
3017.161 -999.000  310.889    8.909   -2.308   -5.610
3576.183 -999.000  313.628    8.172   -2.810   -4.057
4193.078 -999.000  317.004    6.851   -4.198   -2.774
4857.795 -999.000  321.028    5.194   -5.200   -1.923
5578.999 -999.000  324.971    3.789   -3.989   -1.804
6333.516 -999.000  328.622    3.061   -0.201   -1.707
7084.564 -999.000  331.942    2.760   1.827   0.367
7836.234 -999.000  335.653    2.250   -1.126   5.313
8582.901 -999.000  338.801    1.590   -2.156   8.488
9330.266 -999.000  341.308    0.949   -3.472   8.772
10083.780 -999.000  343.384    0.401   -3.923   8.076
10827.658 -999.000  344.781    0.155   -3.544   9.036
11568.746 -999.000  346.141    0.089   -4.219   11.588
12316.295 -999.000  347.503    0.069   -6.451   11.409
13068.287 -999.000  347.998    0.039   -8.228   9.578
13822.677 -999.000  350.043    0.018   -6.337   9.366
14556.426 -999.000  355.012    0.010   -0.926   3.414
15307.969 -999.000  359.445    0.006   2.638   -6.208
16072.348 -999.000  365.441    0.003   6.130   -7.129
16863.248 -999.000  377.760    0.003   8.387   -1.453
17750.090 -999.000  400.701    0.005   7.113   5.438
18738.941 -999.000  424.494    0.006   4.618   5.946
19913.666 -999.000  454.662    0.006   0.311   -0.781
1000,   66,   1010.09    day,levels,pres0
75.867 -999.000  297.709    18.841   -2.790   -0.110
110.036 -999.000  297.816    18.816   -3.498   -0.141
144.299 -999.000  297.907    18.796   -3.969   -0.168
178.659 -999.000  298.011    18.770   -4.438   -0.204
217.444 -999.000  298.184    18.692   -5.178   -0.276
256.352 -999.000  298.687    18.429   -7.487   -0.624
295.420 -999.000  298.935    18.212   -8.019   -0.713
334.613 -999.000  299.188    17.918   -8.482   -0.788
369.576 -999.000  299.457    17.621   -8.866   -0.867
409.048 -999.000  299.766    17.353   -9.239   -0.995
448.645 -999.000  300.058    17.191   -9.486   -1.190
488.396 -999.000  300.286    17.147   -9.511   -1.400
532.722 -999.000  300.463    17.178   -9.320   -1.557
577.222 -999.000  300.591    17.250   -8.998   -1.632
621.900 -999.000  300.703    17.325   -8.593   -1.671
666.754 -999.000  300.825    17.386   -8.135   -1.704
711.786 -999.000  300.969    17.414   -7.648   -1.759
756.996 -999.000  301.138    17.364   -7.162   -1.857
806.944 -999.000  301.358    17.216   -6.684   -2.024
857.092 -999.000  301.584    17.005   -6.324   -2.228
902.881 -999.000  301.794    16.777   -6.132   -2.431
948.853 -999.000  301.982    16.526   -6.053   -2.624
999.646 -999.000  302.185    16.234   -6.031   -2.847
1055.303 -999.000  302.410    15.898   -6.030   -3.124
1106.551 -999.000  302.624    15.578   -6.001   -3.415
1158.050 -999.000  302.846    15.243   -5.941   -3.743
1214.489 -999.000  303.064    14.896   -5.847   -4.123
1271.214 -999.000  303.269    14.569   -5.796   -4.502
1328.230 -999.000  303.457    14.249   -5.835   -4.867
1390.346 -999.000  303.663    13.915   -6.011   -5.229
1452.790 -999.000  303.868    13.600   -6.307   -5.543
1510.766 -999.000  304.079    13.329   -6.641   -5.816
1569.056 -999.000  304.302    13.093   -6.939   -6.094
1632.579 -999.000  304.555    12.869   -7.110   -6.398
1696.455 -999.000  304.831    12.630   -7.078   -6.658
1765.728 -999.000  305.132    12.338   -6.889   -6.831
1830.388 -999.000  305.436    12.033   -6.656   -6.938
1895.542 -999.000  305.692    11.782   -6.403   -6.984
1971.156 -999.000  305.977    11.507   -6.014   -7.050
2047.361 -999.000  306.220    11.248   -5.533   -7.177
2134.412 -999.000  306.582    10.883   -4.859   -7.380
2227.378 -999.000  307.242    10.360   -3.958   -7.498
2514.037 -999.000  308.615    9.610   -2.862   -7.041
3017.161 -999.000  310.889    8.909   -2.308   -5.610
3576.183 -999.000  313.628    8.172   -2.810   -4.057
4193.078 -999.000  317.004    6.851   -4.198   -2.774
4857.795 -999.000  321.028    5.194   -5.200   -1.923
5578.999 -999.000  324.971    3.789   -3.989   -1.804
6333.516 -999.000  328.622    3.061   -0.201   -1.707
7084.564 -999.000  331.942    2.760   1.827   0.367
7836.234 -999.000  335.653    2.250   -1.126   5.313
8582.901 -999.000  338.801    1.590   -2.156   8.488
9330.266 -999.000  341.308    0.949   -3.472   8.772
10083.780 -999.000  343.384    0.401   -3.923   8.076
10827.658 -999.000  344.781    0.155   -3.544   9.036
11568.746 -999.000  346.141    0.089   -4.219   11.588
12316.295 -999.000  347.503    0.069   -6.451   11.409
13068.287 -999.000  347.998    0.039   -8.228   9.578
13822.677 -999.000  350.043    0.018   -6.337   9.366
14556.426 -999.000  355.012    0.010   -0.926   3.414
15307.969 -999.000  359.445    0.006   2.638   -6.208
16072.348 -999.000  365.441    0.003   6.130   -7.129
16863.248 -999.000  377.760    0.003   8.387   -1.453
17750.090 -999.000  400.701    0.005   7.113   5.438
18738.941 -999.000  424.494    0.006   4.618   5.946
19913.666 -999.000  454.662    0.006   0.311   -0.781
